"sample_h - RawData"
"Wavelength nm.","T%"
200.00,-0.064
200.50,0.084
201.00,0.019
201.50,-0.021
202.00,0.097
202.50,0.194
203.00,-0.020
203.50,0.070
204.00,0.000
204.50,-0.049
205.00,-0.098
205.50,0.138
206.00,0.004
206.50,0.062
207.00,0.031
207.50,-0.011
208.00,0.063
208.50,0.014
209.00,0.011
209.50,0.024
210.00,-0.045
210.50,0.042
211.00,0.020
211.50,0.015
212.00,0.065
212.50,0.070
213.00,0.009
213.50,0.036
214.00,0.042
214.50,-0.003
215.00,0.038
215.50,0.006
216.00,0.021
216.50,0.041
217.00,0.021
217.50,0.026
218.00,0.016
218.50,0.026
219.00,0.025
219.50,0.023
220.00,0.035
220.50,0.025
221.00,0.015
221.50,0.012
222.00,0.037
222.50,0.036
223.00,0.027
223.50,0.019
224.00,0.039
224.50,0.027
225.00,0.022
225.50,0.052
226.00,0.031
226.50,0.019
227.00,0.029
227.50,0.035
228.00,0.008
228.50,0.014
229.00,0.036
229.50,0.022
230.00,0.027
230.50,0.033
231.00,0.033
231.50,0.026
232.00,0.032
232.50,0.022
233.00,0.024
233.50,0.030
234.00,0.016
234.50,0.040
235.00,0.020
235.50,0.031
236.00,0.034
236.50,0.042
237.00,0.020
237.50,0.031
238.00,0.017
238.50,0.027
239.00,0.018
239.50,0.021
240.00,0.013
240.50,0.016
241.00,0.017
241.50,0.009
242.00,0.025
242.50,0.031
243.00,0.022
243.50,0.026
244.00,0.037
244.50,0.028
245.00,0.020
245.50,0.025
246.00,0.020
246.50,0.027
247.00,0.019
247.50,0.014
248.00,0.020
248.50,0.015
249.00,0.020
249.50,0.030
250.00,0.026
250.50,0.031
251.00,0.019
251.50,0.025
252.00,0.029
252.50,0.028
253.00,0.022
253.50,0.022
254.00,0.023
254.50,0.015
255.00,0.022
255.50,0.017
256.00,0.012
256.50,0.028
257.00,0.022
257.50,0.025
258.00,0.032
258.50,0.022
259.00,0.030
259.50,0.017
260.00,0.026
260.50,0.016
261.00,0.014
261.50,0.034
262.00,0.025
262.50,0.014
263.00,0.022
263.50,0.025
264.00,0.015
264.50,0.035
265.00,0.022
265.50,0.015
266.00,0.022
266.50,0.021
267.00,0.023
267.50,0.027
268.00,0.018
268.50,0.020
269.00,0.026
269.50,0.024
270.00,0.010
270.50,0.028
271.00,0.019
271.50,0.017
272.00,0.022
272.50,0.024
273.00,0.029
273.50,0.029
274.00,0.022
274.50,0.012
275.00,0.023
275.50,0.023
276.00,0.024
276.50,0.031
277.00,0.027
277.50,0.021
278.00,0.016
278.50,0.026
279.00,0.025
279.50,0.024
280.00,0.028
280.50,0.021
281.00,0.018
281.50,0.028
282.00,0.031
282.50,0.014
283.00,0.023
283.50,0.027
284.00,0.020
284.50,0.027
285.00,0.016
285.50,0.025
286.00,0.026
286.50,0.026
287.00,0.017
287.50,0.020
288.00,0.019
288.50,0.026
289.00,0.030
289.50,0.010
290.00,0.007
290.50,0.012
291.00,0.024
291.50,0.018
292.00,0.023
292.50,0.022
293.00,0.012
293.50,0.019
294.00,0.020
294.50,0.019
295.00,0.018
295.50,0.019
296.00,0.007
296.50,0.013
297.00,0.015
297.50,0.019
298.00,0.026
298.50,0.025
299.00,0.022
299.50,0.020
300.00,0.017
300.50,0.024
301.00,0.029
301.50,0.036
302.00,0.038
302.50,0.037
303.00,0.029
303.50,0.032
304.00,0.037
304.50,0.042
305.00,0.027
305.50,0.041
306.00,0.014
306.50,0.030
307.00,0.049
307.50,0.040
308.00,0.045
308.50,0.034
309.00,0.032
309.50,0.011
310.00,0.044
310.50,0.040
311.00,0.031
311.50,0.036
312.00,0.042
312.50,0.034
313.00,0.035
313.50,0.043
314.00,0.032
314.50,0.042
315.00,0.025
315.50,0.032
316.00,0.040
316.50,0.028
317.00,0.020
317.50,0.041
318.00,0.031
318.50,0.016
319.00,0.027
319.50,0.036
320.00,0.022
320.50,0.034
321.00,0.051
321.50,0.019
322.00,0.039
322.50,0.042
323.00,0.017
323.50,0.037
324.00,0.026
324.50,0.015
325.00,0.027
325.50,0.043
326.00,0.027
326.50,0.041
327.00,0.037
327.50,0.027
328.00,0.038
328.50,0.044
329.00,0.026
329.50,0.030
330.00,0.035
330.50,0.036
331.00,0.028
331.50,0.038
332.00,0.031
332.50,0.009
333.00,0.035
333.50,0.025
334.00,0.035
334.50,0.045
335.00,0.052
335.50,0.031
336.00,0.052
336.50,0.031
337.00,0.043
337.50,0.029
338.00,0.022
338.50,0.048
339.00,0.033
339.50,0.029
340.00,0.037
340.50,0.030
341.00,0.095
341.50,-0.148
342.00,0.150
342.50,0.064
343.00,0.086
343.50,0.137
344.00,-0.007
344.50,-0.011
345.00,0.056
345.50,-0.012
346.00,0.066
346.50,-0.040
347.00,0.016
347.50,0.069
348.00,0.049
348.50,0.093
349.00,0.064
349.50,0.044
350.00,0.043
350.50,0.062
351.00,-0.020
351.50,0.071
352.00,-0.010
352.50,-0.031
353.00,0.034
353.50,0.032
354.00,0.064
354.50,0.059
355.00,0.066
355.50,0.035
356.00,0.051
356.50,-0.007
357.00,0.038
357.50,0.051
358.00,0.043
358.50,0.034
359.00,0.032
359.50,0.033
360.00,0.035
360.50,0.092
361.00,0.102
361.50,0.087
362.00,0.097
362.50,0.102
363.00,0.081
363.50,0.104
364.00,0.111
364.50,0.096
365.00,0.098
365.50,0.078
366.00,0.062
366.50,0.111
367.00,0.099
367.50,0.085
368.00,0.091
368.50,0.100
369.00,0.099
369.50,0.100
370.00,0.087
370.50,0.094
371.00,0.095
371.50,0.084
372.00,0.094
372.50,0.113
373.00,0.093
373.50,0.099
374.00,0.084
374.50,0.102
375.00,0.076
375.50,0.088
376.00,0.101
376.50,0.090
377.00,0.089
377.50,0.094
378.00,0.094
378.50,0.093
379.00,0.087
379.50,0.096
380.00,0.095
380.50,0.103
381.00,0.086
381.50,0.098
382.00,0.089
382.50,0.088
383.00,0.092
383.50,0.087
384.00,0.091
384.50,0.077
385.00,0.092
385.50,0.083
386.00,0.092
386.50,0.084
387.00,0.096
387.50,0.086
388.00,0.092
388.50,0.094
389.00,0.092
389.50,0.084
390.00,0.085
390.50,0.083
391.00,0.089
391.50,0.082
392.00,0.081
392.50,0.082
393.00,0.091
393.50,0.083
394.00,0.092
394.50,0.083
395.00,0.093
395.50,0.087
396.00,0.072
396.50,0.077
397.00,0.085
397.50,0.079
398.00,0.096
398.50,0.084
399.00,0.083
399.50,0.086
400.00,0.086
400.50,0.078
401.00,0.084
401.50,0.083
402.00,0.076
402.50,0.078
403.00,0.088
403.50,0.087
404.00,0.078
404.50,0.075
405.00,0.081
405.50,0.082
406.00,0.083
406.50,0.077
407.00,0.085
407.50,0.079
408.00,0.078
408.50,0.080
409.00,0.078
409.50,0.080
410.00,0.081
410.50,0.084
411.00,0.079
411.50,0.081
412.00,0.079
412.50,0.071
413.00,0.072
413.50,0.078
414.00,0.071
414.50,0.081
415.00,0.080
415.50,0.068
416.00,0.075
416.50,0.077
417.00,0.075
417.50,0.078
418.00,0.081
418.50,0.085
419.00,0.075
419.50,0.078
420.00,0.081
420.50,0.086
421.00,0.075
421.50,0.093
422.00,0.091
422.50,0.091
423.00,0.097
423.50,0.083
424.00,0.088
424.50,0.081
425.00,0.090
425.50,0.084
426.00,0.090
426.50,0.081
427.00,0.084
427.50,0.085
428.00,0.083
428.50,0.086
429.00,0.079
429.50,0.080
430.00,0.081
430.50,0.082
431.00,0.078
431.50,0.085
432.00,0.081
432.50,0.084
433.00,0.079
433.50,0.076
434.00,0.082
434.50,0.089
435.00,0.076
435.50,0.082
436.00,0.081
436.50,0.078
437.00,0.084
437.50,0.083
438.00,0.080
438.50,0.076
439.00,0.079
439.50,0.083
440.00,0.087
440.50,0.080
441.00,0.085
441.50,0.084
442.00,0.081
442.50,0.084
443.00,0.083
443.50,0.083
444.00,0.087
444.50,0.079
445.00,0.082
445.50,0.082
446.00,0.086
446.50,0.080
447.00,0.081
447.50,0.076
448.00,0.078
448.50,0.076
449.00,0.078
449.50,0.080
450.00,0.075
450.50,0.080
451.00,0.075
451.50,0.080
452.00,0.077
452.50,0.075
453.00,0.079
453.50,0.080
454.00,0.072
454.50,0.080
455.00,0.072
455.50,0.077
456.00,0.082
456.50,0.079
457.00,0.079
457.50,0.081
458.00,0.076
458.50,0.080
459.00,0.077
459.50,0.077
460.00,0.084
460.50,0.067
461.00,0.076
461.50,0.076
462.00,0.079
462.50,0.073
463.00,0.084
463.50,0.077
464.00,0.075
464.50,0.077
465.00,0.081
465.50,0.077
466.00,0.075
466.50,0.076
467.00,0.073
467.50,0.072
468.00,0.073
468.50,0.070
469.00,0.075
469.50,0.071
470.00,0.071
470.50,0.078
471.00,0.073
471.50,0.070
472.00,0.069
472.50,0.073
473.00,0.077
473.50,0.075
474.00,0.074
474.50,0.074
475.00,0.073
475.50,0.071
476.00,0.073
476.50,0.074
477.00,0.071
477.50,0.071
478.00,0.073
478.50,0.071
479.00,0.073
479.50,0.080
480.00,0.069
480.50,0.072
481.00,0.071
481.50,0.074
482.00,0.076
482.50,0.067
483.00,0.070
483.50,0.071
484.00,0.078
484.50,0.071
485.00,0.070
485.50,0.069
486.00,0.070
486.50,0.073
487.00,0.065
487.50,0.070
488.00,0.069
488.50,0.070
489.00,0.069
489.50,0.068
490.00,0.070
490.50,0.071
491.00,0.068
491.50,0.069
492.00,0.067
492.50,0.071
493.00,0.066
493.50,0.072
494.00,0.075
494.50,0.070
495.00,0.065
495.50,0.068
496.00,0.074
496.50,0.069
497.00,0.065
497.50,0.069
498.00,0.066
498.50,0.072
499.00,0.065
499.50,0.070
500.00,0.068
500.50,0.068
501.00,0.067
501.50,0.073
502.00,0.071
502.50,0.062
503.00,0.070
503.50,0.065
504.00,0.073
504.50,0.071
505.00,0.062
505.50,0.069
506.00,0.067
506.50,0.064
507.00,0.071
507.50,0.071
508.00,0.061
508.50,0.066
509.00,0.064
509.50,0.068
510.00,0.073
510.50,0.066
511.00,0.068
511.50,0.066
512.00,0.066
512.50,0.068
513.00,0.063
513.50,0.065
514.00,0.062
514.50,0.069
515.00,0.065
515.50,0.069
516.00,0.057
516.50,0.064
517.00,0.064
517.50,0.065
518.00,0.063
518.50,0.063
519.00,0.062
519.50,0.064
520.00,0.054
520.50,0.067
521.00,0.066
521.50,0.068
522.00,0.060
522.50,0.061
523.00,0.066
523.50,0.060
524.00,0.064
524.50,0.065
525.00,0.066
525.50,0.060
526.00,0.059
526.50,0.062
527.00,0.067
527.50,0.058
528.00,0.061
528.50,0.063
529.00,0.062
529.50,0.061
530.00,0.065
530.50,0.026
531.00,0.031
531.50,0.033
532.00,0.037
532.50,0.031
533.00,0.034
533.50,0.032
534.00,0.036
534.50,0.031
535.00,0.036
535.50,0.032
536.00,0.037
536.50,0.042
537.00,0.034
537.50,0.033
538.00,0.035
538.50,0.037
539.00,0.041
539.50,0.039
540.00,0.042
540.50,0.039
541.00,0.038
541.50,0.037
542.00,0.035
542.50,0.039
543.00,0.038
543.50,0.039
544.00,0.032
544.50,0.041
545.00,0.041
545.50,0.038
546.00,0.040
546.50,0.044
547.00,0.039
547.50,0.040
548.00,0.042
548.50,0.040
549.00,0.039
549.50,0.040
550.00,0.038
550.50,0.044
551.00,0.044
551.50,0.042
552.00,0.038
552.50,0.043
553.00,0.046
553.50,0.040
554.00,0.038
554.50,0.043
555.00,0.040
555.50,0.046
556.00,0.044
556.50,0.038
557.00,0.038
557.50,0.037
558.00,0.035
558.50,0.040
559.00,0.042
559.50,0.038
560.00,0.040
560.50,0.041
561.00,0.040
561.50,0.039
562.00,0.043
562.50,0.041
563.00,0.035
563.50,0.041
564.00,0.040
564.50,0.044
565.00,0.038
565.50,0.044
566.00,0.042
566.50,0.035
567.00,0.042
567.50,0.036
568.00,0.040
568.50,0.039
569.00,0.043
569.50,0.038
570.00,0.041
570.50,0.039
571.00,0.042
571.50,0.040
572.00,0.042
572.50,0.038
573.00,0.038
573.50,0.039
574.00,0.036
574.50,0.037
575.00,0.040
575.50,0.040
576.00,0.038
576.50,0.041
577.00,0.040
577.50,0.042
578.00,0.037
578.50,0.037
579.00,0.041
579.50,0.043
580.00,0.040
580.50,0.042
581.00,0.039
581.50,0.042
582.00,0.037
582.50,0.040
583.00,0.039
583.50,0.040
584.00,0.038
584.50,0.043
585.00,0.042
585.50,0.043
586.00,0.039
586.50,0.034
587.00,0.043
587.50,0.042
588.00,0.040
588.50,0.035
589.00,0.043
589.50,0.040
590.00,0.038
590.50,0.038
591.00,0.042
591.50,0.041
592.00,0.033
592.50,0.040
593.00,0.041
593.50,0.038
594.00,0.037
594.50,0.046
595.00,0.038
595.50,0.041
596.00,0.038
596.50,0.040
597.00,0.034
597.50,0.039
598.00,0.040
598.50,0.040
599.00,0.041
599.50,0.038
600.00,0.040
600.50,0.041
601.00,0.041
601.50,0.040
602.00,0.042
602.50,0.037
603.00,0.040
603.50,0.036
604.00,0.038
604.50,0.035
605.00,0.035
605.50,0.043
606.00,0.040
606.50,0.041
607.00,0.037
607.50,0.040
608.00,0.040
608.50,0.041
609.00,0.036
609.50,0.042
610.00,0.046
610.50,0.039
611.00,0.038
611.50,0.042
612.00,0.043
612.50,0.039
613.00,0.043
613.50,0.041
614.00,0.038
614.50,0.036
615.00,0.044
615.50,0.045
616.00,0.042
616.50,0.046
617.00,0.037
617.50,0.039
618.00,0.036
618.50,0.043
619.00,0.040
619.50,0.044
620.00,0.044
620.50,0.044
621.00,0.041
621.50,0.040
622.00,0.039
622.50,0.043
623.00,0.038
623.50,0.039
624.00,0.042
624.50,0.043
625.00,0.041
625.50,0.038
626.00,0.039
626.50,0.041
627.00,0.036
627.50,0.042
628.00,0.042
628.50,0.042
629.00,0.038
629.50,0.044
630.00,0.039
630.50,0.043
631.00,0.041
631.50,0.044
632.00,0.034
632.50,0.037
633.00,0.043
633.50,0.039
634.00,0.038
634.50,0.037
635.00,0.040
635.50,0.043
636.00,0.041
636.50,0.040
637.00,0.037
637.50,0.044
638.00,0.045
638.50,0.044
639.00,0.042
639.50,0.040
640.00,0.039
640.50,0.039
641.00,0.040
641.50,0.038
642.00,0.032
642.50,0.042
643.00,0.040
643.50,0.036
644.00,0.041
644.50,0.037
645.00,0.044
645.50,0.034
646.00,0.043
646.50,0.037
647.00,0.041
647.50,0.040
648.00,0.047
648.50,0.043
649.00,0.042
649.50,0.041
650.00,0.043
650.50,0.041
651.00,0.035
651.50,0.040
652.00,0.038
652.50,0.040
653.00,0.039
653.50,0.036
654.00,0.041
654.50,0.038
655.00,0.040
655.50,0.044
656.00,0.037
656.50,0.036
657.00,0.041
657.50,0.042
658.00,0.038
658.50,0.041
659.00,0.043
659.50,0.037
660.00,0.040
660.50,0.038
661.00,0.043
661.50,0.041
662.00,0.043
662.50,0.036
663.00,0.038
663.50,0.041
664.00,0.040
664.50,0.044
665.00,0.039
665.50,0.037
666.00,0.037
666.50,0.038
667.00,0.041
667.50,0.037
668.00,0.040
668.50,0.042
669.00,0.041
669.50,0.039
670.00,0.039
670.50,0.041
671.00,0.040
671.50,0.038
672.00,0.042
672.50,0.042
673.00,0.044
673.50,0.041
674.00,0.041
674.50,0.041
675.00,0.038
675.50,0.038
676.00,0.043
676.50,0.042
677.00,0.040
677.50,0.041
678.00,0.038
678.50,0.037
679.00,0.042
679.50,0.040
680.00,0.038
680.50,0.043
681.00,0.037
681.50,0.040
682.00,0.037
682.50,0.039
683.00,0.039
683.50,0.040
684.00,0.041
684.50,0.041
685.00,0.044
685.50,0.038
686.00,0.037
686.50,0.043
687.00,0.040
687.50,0.038
688.00,0.041
688.50,0.038
689.00,0.039
689.50,0.040
690.00,0.036
690.50,0.033
691.00,0.040
691.50,0.035
692.00,0.037
692.50,0.042
693.00,0.039
693.50,0.042
694.00,0.041
694.50,0.036
695.00,0.043
695.50,0.040
696.00,0.042
696.50,0.039
697.00,0.041
697.50,0.036
698.00,0.042
698.50,0.041
699.00,0.040
699.50,0.033
700.00,0.043
700.50,0.035
701.00,0.036
701.50,0.040
702.00,0.038
702.50,0.039
703.00,0.041
703.50,0.042
704.00,0.034
704.50,0.038
705.00,0.041
705.50,0.038
706.00,0.043
706.50,0.039
707.00,0.038
707.50,0.043
708.00,0.039
708.50,0.042
709.00,0.038
709.50,0.037
710.00,0.035
710.50,0.042
711.00,0.040
711.50,0.039
712.00,0.043
712.50,0.035
713.00,0.041
713.50,0.041
714.00,0.041
714.50,0.039
715.00,0.040
715.50,0.042
716.00,0.041
716.50,0.038
717.00,0.040
717.50,0.037
718.00,0.044
718.50,0.040
719.00,0.045
719.50,0.038
720.00,0.035
720.50,0.039
721.00,0.036
721.50,0.043
722.00,0.036
722.50,0.039
723.00,0.043
723.50,0.033
724.00,0.036
724.50,0.041
725.00,0.035
725.50,0.038
726.00,0.040
726.50,0.036
727.00,0.052
727.50,0.044
728.00,0.039
728.50,0.043
729.00,0.044
729.50,0.038
730.00,0.042
730.50,0.044
731.00,0.040
731.50,0.041
732.00,0.040
732.50,0.045
733.00,0.042
733.50,0.037
734.00,0.043
734.50,0.041
735.00,0.043
735.50,0.037
736.00,0.042
736.50,0.040
737.00,0.038
737.50,0.041
738.00,0.043
738.50,0.039
739.00,0.036
739.50,0.037
740.00,0.035
740.50,0.039
741.00,0.042
741.50,0.037
742.00,0.039
742.50,0.040
743.00,0.031
743.50,0.042
744.00,0.040
744.50,0.035
745.00,0.042
745.50,0.043
746.00,0.033
746.50,0.040
747.00,0.044
747.50,0.040
748.00,0.040
748.50,0.037
749.00,0.041
749.50,0.040
750.00,0.042
750.50,0.036
751.00,0.036
751.50,0.047
752.00,0.039
752.50,0.043
753.00,0.048
753.50,0.031
754.00,0.046
754.50,0.039
755.00,0.037
755.50,0.034
756.00,0.044
756.50,0.037
757.00,0.033
757.50,0.043
758.00,0.036
758.50,0.033
759.00,0.034
759.50,0.043
760.00,0.044
760.50,0.045
761.00,0.040
761.50,0.040
762.00,0.037
762.50,0.037
763.00,0.044
763.50,0.036
764.00,0.037
764.50,0.035
765.00,0.041
765.50,0.037
766.00,0.037
766.50,0.033
767.00,0.035
767.50,0.034
768.00,0.046
768.50,0.051
769.00,0.036
769.50,0.042
770.00,0.041
770.50,0.046
771.00,0.048
771.50,0.047
772.00,0.042
772.50,0.044
773.00,0.037
773.50,0.036
774.00,0.045
774.50,0.042
775.00,0.036
775.50,0.040
776.00,0.042
776.50,0.036
777.00,0.040
777.50,0.038
778.00,0.039
778.50,0.038
779.00,0.044
779.50,0.030
780.00,0.039
780.50,0.045
781.00,0.035
781.50,0.038
782.00,0.041
782.50,0.033
783.00,0.039
783.50,0.046
784.00,0.038
784.50,0.037
785.00,0.044
785.50,0.040
786.00,0.037
786.50,0.045
787.00,0.035
787.50,0.041
788.00,0.047
788.50,0.040
789.00,0.039
789.50,0.053
790.00,0.040
790.50,0.042
791.00,0.047
791.50,0.041
792.00,0.042
792.50,0.032
793.00,0.043
793.50,0.034
794.00,0.044
794.50,0.033
795.00,0.036
795.50,0.029
796.00,0.039
796.50,0.040
797.00,0.048
797.50,0.026
798.00,0.031
798.50,0.033
799.00,0.039
799.50,0.036
800.00,0.035
800.50,0.033
801.00,0.032
801.50,0.040
802.00,0.030
802.50,0.030
803.00,0.038
803.50,0.038
804.00,0.041
804.50,0.040
805.00,0.023
805.50,0.039
806.00,0.043
806.50,0.038
807.00,0.047
807.50,0.050
808.00,0.027
808.50,0.043
809.00,0.043
809.50,0.036
810.00,0.023
810.50,0.046
811.00,0.044
811.50,0.041
812.00,0.035
812.50,0.030
813.00,0.037
813.50,0.027
814.00,0.036
814.50,0.036
815.00,0.021
815.50,0.030
816.00,0.032
816.50,0.041
817.00,0.033
817.50,0.048
818.00,0.044
818.50,0.021
819.00,0.038
819.50,0.049
820.00,0.040
820.50,0.036
821.00,0.029
821.50,0.040
822.00,0.038
822.50,0.046
823.00,0.040
823.50,0.040
824.00,0.042
824.50,0.034
825.00,0.039
825.50,0.043
826.00,0.038
826.50,0.017
827.00,0.042
827.50,0.032
828.00,0.037
828.50,0.014
829.00,0.046
829.50,0.041
830.00,0.045
830.50,0.026
831.00,0.045
831.50,0.050
832.00,0.048
832.50,0.025
833.00,0.030
833.50,0.041
834.00,0.040
834.50,0.038
835.00,0.037
835.50,0.034
836.00,0.034
836.50,0.036
837.00,0.044
837.50,0.044
838.00,0.059
838.50,0.038
839.00,0.059
839.50,0.037
840.00,0.026
840.50,0.035
841.00,0.042
841.50,0.011
842.00,0.029
842.50,0.035
843.00,0.033
843.50,0.033
844.00,0.028
844.50,0.044
845.00,0.041
845.50,0.019
846.00,0.028
846.50,0.041
847.00,0.040
847.50,0.029
848.00,0.028
848.50,0.041
849.00,0.032
849.50,0.038
850.00,0.045
850.50,0.037
851.00,0.050
851.50,0.039
852.00,0.059
852.50,0.022
853.00,0.048
853.50,0.028
854.00,0.058
854.50,0.051
855.00,0.041
855.50,0.035
856.00,0.041
856.50,0.016
857.00,0.049
857.50,0.042
858.00,0.030
858.50,0.037
859.00,0.031
859.50,0.040
860.00,0.032
860.50,0.040
861.00,0.039
861.50,0.052
862.00,0.025
862.50,0.049
863.00,0.042
863.50,0.036
864.00,0.006
864.50,0.033
865.00,0.014
865.50,0.028
866.00,0.013
866.50,0.022
867.00,0.053
867.50,0.080
868.00,0.031
868.50,0.053
869.00,0.038
869.50,0.013
870.00,0.067
870.50,0.039
871.00,0.045
871.50,0.031
872.00,0.049
872.50,0.006
873.00,0.055
873.50,0.019
874.00,0.024
874.50,0.095
875.00,0.002
875.50,0.055
876.00,0.069
876.50,0.101
877.00,0.087
877.50,0.062
878.00,0.038
878.50,0.058
879.00,0.064
879.50,0.059
880.00,0.071
880.50,0.017
881.00,0.094
881.50,0.044
882.00,0.035
882.50,0.084
883.00,0.083
883.50,0.074
884.00,0.068
884.50,-0.017
885.00,0.057
885.50,-0.001
886.00,-0.050
886.50,0.055
887.00,-0.073
887.50,0.009
888.00,-0.036
888.50,0.008
889.00,0.116
889.50,0.248
890.00,-0.190
890.50,0.070
891.00,-0.135
891.50,-0.027
892.00,-0.016
892.50,-0.160
893.00,0.144
893.50,0.364
894.00,-0.228
894.50,-0.019
895.00,-0.016
895.50,0.262
896.00,0.141
896.50,0.427
897.00,-0.038
897.50,0.174
898.00,-0.357
898.50,0.229
899.00,-0.143
899.50,0.069
900.00,0.694
900.50,0.107
901.00,0.240
901.50,0.008
902.00,-0.044
902.50,0.060
903.00,0.062
903.50,-0.005
904.00,0.089
904.50,-0.005
905.00,0.030
905.50,0.093
906.00,0.075
906.50,-0.065
907.00,-0.001
907.50,-0.000
908.00,0.148
908.50,0.035
909.00,-0.017
909.50,0.133
910.00,-0.064
910.50,0.071
