"sample_d - RawData"
"Wavelength nm.","T%"
200.00,0.049
200.50,0.014
201.00,-0.048
201.50,0.010
202.00,-0.052
202.50,-0.085
203.00,-0.054
203.50,-0.010
204.00,0.072
204.50,-0.031
205.00,0.103
205.50,0.140
206.00,-0.002
206.50,-0.091
207.00,0.027
207.50,0.020
208.00,-0.016
208.50,-0.022
209.00,-0.025
209.50,0.020
210.00,-0.005
210.50,-0.020
211.00,-0.006
211.50,-0.010
212.00,0.040
212.50,0.003
213.00,0.015
213.50,0.015
214.00,-0.024
214.50,0.014
215.00,0.018
215.50,-0.039
216.00,0.010
216.50,-0.027
217.00,0.002
217.50,0.023
218.00,-0.011
218.50,0.002
219.00,0.021
219.50,-0.032
220.00,0.001
220.50,0.029
221.00,0.000
221.50,0.007
222.00,0.008
222.50,-0.006
223.00,0.010
223.50,-0.030
224.00,-0.007
224.50,-0.014
225.00,-0.015
225.50,-0.018
226.00,-0.013
226.50,-0.014
227.00,-0.015
227.50,0.004
228.00,0.007
228.50,0.012
229.00,-0.003
229.50,0.022
230.00,-0.001
230.50,0.006
231.00,0.015
231.50,0.020
232.00,0.006
232.50,-0.007
233.00,0.010
233.50,0.001
234.00,0.008
234.50,0.004
235.00,-0.006
235.50,-0.001
236.00,0.002
236.50,-0.003
237.00,-0.002
237.50,0.010
238.00,0.002
238.50,0.004
239.00,0.010
239.50,0.015
240.00,-0.005
240.50,0.002
241.00,0.009
241.50,0.004
242.00,0.016
242.50,0.011
243.00,-0.005
243.50,-0.002
244.00,0.002
244.50,0.001
245.00,-0.002
245.50,0.003
246.00,-0.000
246.50,-0.001
247.00,0.000
247.50,0.019
248.00,-0.012
248.50,-0.011
249.00,-0.001
249.50,-0.005
250.00,-0.009
250.50,0.006
251.00,-0.004
251.50,0.006
252.00,0.008
252.50,-0.013
253.00,0.003
253.50,0.006
254.00,0.001
254.50,-0.009
255.00,0.006
255.50,-0.000
256.00,0.004
256.50,0.006
257.00,-0.003
257.50,-0.007
258.00,-0.004
258.50,0.001
259.00,0.001
259.50,-0.005
260.00,-0.003
260.50,-0.004
261.00,-0.004
261.50,0.002
262.00,-0.002
262.50,-0.000
263.00,-0.001
263.50,0.003
264.00,0.000
264.50,-0.001
265.00,0.008
265.50,0.002
266.00,0.001
266.50,0.009
267.00,0.001
267.50,-0.007
268.00,-0.003
268.50,-0.000
269.00,0.002
269.50,0.008
270.00,0.008
270.50,-0.002
271.00,-0.007
271.50,0.002
272.00,-0.007
272.50,0.012
273.00,-0.005
273.50,0.000
274.00,-0.009
274.50,0.015
275.00,-0.009
275.50,-0.001
276.00,-0.001
276.50,-0.007
277.00,-0.002
277.50,-0.004
278.00,-0.002
278.50,0.007
279.00,-0.005
279.50,-0.004
280.00,0.004
280.50,0.008
281.00,-0.003
281.50,-0.004
282.00,0.004
282.50,0.006
283.00,-0.005
283.50,-0.006
284.00,-0.004
284.50,-0.005
285.00,0.007
285.50,0.011
286.00,-0.002
286.50,0.005
287.00,0.003
287.50,-0.009
288.00,-0.002
288.50,0.002
289.00,-0.001
289.50,-0.002
290.00,0.010
290.50,-0.003
291.00,-0.002
291.50,-0.000
292.00,0.000
292.50,-0.006
293.00,0.013
293.50,-0.002
294.00,-0.005
294.50,0.005
295.00,0.002
295.50,0.003
296.00,-0.005
296.50,-0.000
297.00,0.002
297.50,0.009
298.00,-0.011
298.50,-0.003
299.00,0.005
299.50,0.009
300.00,-0.003
300.50,0.004
301.00,0.007
301.50,-0.013
302.00,0.015
302.50,-0.006
303.00,-0.006
303.50,0.003
304.00,-0.010
304.50,-0.006
305.00,-0.000
305.50,0.005
306.00,-0.006
306.50,-0.008
307.00,0.003
307.50,-0.006
308.00,-0.013
308.50,0.004
309.00,0.001
309.50,-0.004
310.00,-0.001
310.50,0.000
311.00,-0.001
311.50,0.002
312.00,-0.004
312.50,-0.002
313.00,0.001
313.50,0.004
314.00,-0.006
314.50,-0.000
315.00,0.021
315.50,-0.002
316.00,-0.010
316.50,-0.001
317.00,-0.009
317.50,0.005
318.00,-0.001
318.50,-0.013
319.00,-0.024
319.50,0.004
320.00,0.007
320.50,-0.003
321.00,-0.018
321.50,0.010
322.00,0.008
322.50,-0.000
323.00,0.017
323.50,-0.016
324.00,0.001
324.50,-0.011
325.00,-0.009
325.50,-0.001
326.00,0.000
326.50,0.011
327.00,-0.019
327.50,0.003
328.00,-0.009
328.50,0.005
329.00,0.004
329.50,-0.002
330.00,0.001
330.50,-0.013
331.00,0.005
331.50,-0.010
332.00,-0.000
332.50,-0.006
333.00,-0.012
333.50,-0.003
334.00,0.012
334.50,-0.005
335.00,-0.035
335.50,-0.004
336.00,-0.004
336.50,-0.026
337.00,0.011
337.50,-0.006
338.00,0.003
338.50,-0.009
339.00,-0.008
339.50,0.008
340.00,-0.031
340.50,-0.271
341.00,-0.155
341.50,0.005
342.00,-0.003
342.50,0.045
343.00,0.117
343.50,0.009
344.00,-0.082
344.50,-0.132
345.00,0.088
345.50,-0.056
346.00,-0.014
346.50,-0.051
347.00,-0.001
347.50,0.048
348.00,0.040
348.50,0.023
349.00,-0.063
349.50,-0.034
350.00,0.036
350.50,-0.026
351.00,0.003
351.50,-0.016
352.00,-0.036
352.50,-0.000
353.00,-0.012
353.50,-0.012
354.00,-0.001
354.50,-0.011
355.00,-0.019
355.50,0.003
356.00,-0.000
356.50,-0.016
357.00,0.010
357.50,-0.008
358.00,-0.009
358.50,-0.022
359.00,-0.004
359.50,-0.008
360.00,-0.004
360.50,0.000
361.00,-0.011
361.50,-0.002
362.00,-0.010
362.50,0.004
363.00,0.000
363.50,0.004
364.00,-0.001
364.50,0.006
365.00,-0.011
365.50,-0.008
366.00,-0.008
366.50,-0.010
367.00,0.004
367.50,0.004
368.00,0.005
368.50,-0.007
369.00,-0.008
369.50,-0.012
370.00,-0.016
370.50,0.001
371.00,-0.017
371.50,0.006
372.00,-0.009
372.50,-0.002
373.00,0.005
373.50,-0.002
374.00,-0.002
374.50,-0.004
375.00,-0.007
375.50,-0.015
376.00,0.011
376.50,0.012
377.00,0.003
377.50,-0.006
378.00,0.002
378.50,-0.008
379.00,0.003
379.50,-0.001
380.00,-0.003
380.50,-0.002
381.00,-0.002
381.50,0.000
382.00,-0.007
382.50,-0.003
383.00,-0.005
383.50,0.003
384.00,-0.004
384.50,-0.007
385.00,0.005
385.50,0.001
386.00,0.007
386.50,-0.000
387.00,-0.002
387.50,-0.001
388.00,-0.002
388.50,-0.006
389.00,0.001
389.50,-0.007
390.00,0.000
390.50,-0.002
391.00,-0.006
391.50,-0.006
392.00,-0.010
392.50,-0.005
393.00,-0.008
393.50,-0.010
394.00,-0.004
394.50,-0.002
395.00,0.012
395.50,0.006
396.00,-0.011
396.50,-0.009
397.00,-0.004
397.50,-0.008
398.00,-0.008
398.50,-0.002
399.00,0.005
399.50,-0.003
400.00,0.002
400.50,-0.000
401.00,-0.003
401.50,-0.002
402.00,-0.006
402.50,-0.005
403.00,0.003
403.50,-0.003
404.00,0.003
404.50,0.003
405.00,0.005
405.50,-0.002
406.00,-0.004
406.50,0.003
407.00,-0.002
407.50,0.006
408.00,-0.005
408.50,0.003
409.00,-0.005
409.50,-0.002
410.00,-0.002
410.50,0.001
411.00,-0.009
411.50,-0.000
412.00,-0.003
412.50,0.001
413.00,0.004
413.50,-0.001
414.00,-0.004
414.50,-0.003
415.00,-0.002
415.50,-0.002
416.00,-0.003
416.50,0.002
417.00,-0.000
417.50,-0.003
418.00,0.000
418.50,-0.002
419.00,-0.010
419.50,-0.001
420.00,-0.003
420.50,-0.003
421.00,-0.005
421.50,0.003
422.00,-0.001
422.50,-0.002
423.00,-0.002
423.50,0.000
424.00,-0.004
424.50,0.006
425.00,-0.005
425.50,-0.002
426.00,0.002
426.50,-0.009
427.00,-0.006
427.50,-0.004
428.00,-0.004
428.50,-0.007
429.00,-0.005
429.50,-0.004
430.00,0.002
430.50,-0.002
431.00,0.007
431.50,-0.002
432.00,-0.002
432.50,-0.001
433.00,0.000
433.50,-0.005
434.00,-0.002
434.50,-0.004
435.00,0.002
435.50,0.005
436.00,-0.001
436.50,-0.003
437.00,0.003
437.50,-0.009
438.00,-0.003
438.50,0.000
439.00,-0.006
439.50,0.005
440.00,-0.002
440.50,0.004
441.00,-0.004
441.50,0.005
442.00,-0.001
442.50,0.003
443.00,-0.000
443.50,-0.003
444.00,-0.000
444.50,0.004
445.00,0.002
445.50,-0.000
446.00,0.005
446.50,-0.001
447.00,-0.004
447.50,0.001
448.00,-0.001
448.50,-0.003
449.00,-0.008
449.50,-0.000
450.00,-0.003
450.50,0.002
451.00,-0.011
451.50,0.003
452.00,-0.001
452.50,0.002
453.00,0.004
453.50,0.003
454.00,-0.008
454.50,0.006
455.00,-0.005
455.50,0.001
456.00,-0.000
456.50,0.003
457.00,-0.001
457.50,0.001
458.00,-0.003
458.50,-0.004
459.00,0.000
459.50,0.004
460.00,-0.000
460.50,-0.005
461.00,-0.005
461.50,-0.003
462.00,-0.005
462.50,0.001
463.00,-0.001
463.50,-0.006
464.00,0.001
464.50,-0.001
465.00,0.003
465.50,-0.004
466.00,-0.002
466.50,-0.003
467.00,0.004
467.50,-0.002
468.00,-0.007
468.50,-0.004
469.00,0.003
469.50,0.001
470.00,0.004
470.50,0.001
471.00,-0.001
471.50,0.002
472.00,0.002
472.50,-0.000
473.00,0.001
473.50,-0.002
474.00,0.003
474.50,0.001
475.00,-0.001
475.50,-0.004
476.00,0.001
476.50,-0.005
477.00,-0.002
477.50,-0.001
478.00,-0.000
478.50,0.000
479.00,0.000
479.50,-0.004
480.00,0.002
480.50,0.002
481.00,-0.005
481.50,-0.004
482.00,-0.008
482.50,-0.001
483.00,0.000
483.50,-0.004
484.00,0.000
484.50,-0.003
485.00,0.006
485.50,-0.003
486.00,-0.003
486.50,-0.009
487.00,-0.004
487.50,-0.001
488.00,0.005
488.50,-0.005
489.00,-0.006
489.50,-0.001
490.00,0.002
490.50,0.003
491.00,-0.004
491.50,-0.003
492.00,0.001
492.50,0.002
493.00,0.001
493.50,-0.003
494.00,0.001
494.50,-0.002
495.00,0.008
495.50,-0.001
496.00,-0.006
496.50,-0.008
497.00,0.002
497.50,-0.002
498.00,-0.004
498.50,-0.001
499.00,-0.003
499.50,0.002
500.00,-0.002
500.50,-0.006
501.00,-0.007
501.50,0.004
502.00,0.001
502.50,-0.001
503.00,-0.001
503.50,-0.001
504.00,-0.010
504.50,0.001
505.00,-0.008
505.50,0.001
506.00,0.002
506.50,-0.006
507.00,0.001
507.50,0.000
508.00,0.003
508.50,0.000
509.00,0.000
509.50,0.001
510.00,-0.002
510.50,-0.004
511.00,0.001
511.50,-0.006
512.00,-0.003
512.50,-0.002
513.00,-0.003
513.50,0.000
514.00,-0.004
514.50,0.002
515.00,-0.000
515.50,-0.007
516.00,0.002
516.50,0.003
517.00,0.001
517.50,-0.005
518.00,0.004
518.50,-0.001
519.00,-0.004
519.50,-0.003
520.00,-0.003
520.50,0.003
521.00,0.000
521.50,-0.002
522.00,0.002
522.50,0.005
523.00,0.002
523.50,-0.005
524.00,-0.004
524.50,-0.003
525.00,-0.006
525.50,-0.004
526.00,-0.005
526.50,0.000
527.00,-0.003
527.50,-0.000
528.00,0.001
528.50,0.000
529.00,0.006
529.50,-0.002
530.00,0.001
530.50,-0.001
531.00,-0.002
531.50,0.003
532.00,0.005
532.50,0.003
533.00,0.006
533.50,-0.000
534.00,-0.002
534.50,0.002
535.00,0.004
535.50,-0.000
536.00,-0.004
536.50,-0.002
537.00,-0.002
537.50,0.002
538.00,-0.002
538.50,0.000
539.00,0.000
539.50,0.000
540.00,-0.001
540.50,-0.004
541.00,-0.004
541.50,0.001
542.00,-0.001
542.50,-0.001
543.00,-0.004
543.50,0.003
544.00,0.004
544.50,0.003
545.00,0.002
545.50,-0.000
546.00,0.003
546.50,-0.001
547.00,0.000
547.50,-0.006
548.00,-0.002
548.50,-0.000
549.00,0.002
549.50,-0.002
550.00,-0.001
550.50,0.002
551.00,-0.001
551.50,-0.004
552.00,0.002
552.50,-0.001
553.00,0.004
553.50,-0.002
554.00,-0.004
554.50,-0.003
555.00,-0.002
555.50,0.002
556.00,-0.005
556.50,-0.002
557.00,0.002
557.50,-0.005
558.00,0.002
558.50,-0.001
559.00,0.000
559.50,-0.002
560.00,0.001
560.50,0.001
561.00,0.000
561.50,0.002
562.00,-0.001
562.50,-0.001
563.00,-0.001
563.50,0.001
564.00,-0.005
564.50,0.000
565.00,0.002
565.50,0.000
566.00,-0.003
566.50,-0.001
567.00,-0.003
567.50,-0.001
568.00,0.002
568.50,-0.004
569.00,-0.001
569.50,-0.001
570.00,0.002
570.50,0.000
571.00,0.000
571.50,-0.001
572.00,-0.000
572.50,-0.003
573.00,0.001
573.50,-0.000
574.00,-0.003
574.50,-0.001
575.00,-0.001
575.50,0.002
576.00,-0.002
576.50,-0.002
577.00,0.001
577.50,0.001
578.00,0.001
578.50,-0.001
579.00,-0.002
579.50,0.001
580.00,-0.002
580.50,-0.003
581.00,-0.001
581.50,0.002
582.00,-0.002
582.50,0.000
583.00,-0.003
583.50,0.001
584.00,0.000
584.50,0.001
585.00,-0.001
585.50,-0.006
586.00,0.005
586.50,0.002
587.00,-0.004
587.50,0.001
588.00,0.001
588.50,-0.004
589.00,-0.003
589.50,0.000
590.00,0.000
590.50,-0.004
591.00,0.002
591.50,0.002
592.00,-0.001
592.50,-0.001
593.00,-0.004
593.50,-0.001
594.00,-0.005
594.50,-0.000
595.00,-0.002
595.50,0.003
596.00,0.002
596.50,-0.002
597.00,-0.001
597.50,-0.002
598.00,-0.005
598.50,0.000
599.00,-0.001
599.50,0.001
600.00,-0.001
600.50,0.001
601.00,0.002
601.50,0.000
602.00,-0.002
602.50,-0.001
603.00,-0.001
603.50,-0.001
604.00,-0.001
604.50,0.001
605.00,0.000
605.50,0.001
606.00,-0.000
606.50,0.000
607.00,-0.004
607.50,0.000
608.00,0.001
608.50,0.000
609.00,-0.007
609.50,-0.002
610.00,0.006
610.50,-0.003
611.00,-0.005
611.50,0.001
612.00,0.000
612.50,-0.002
613.00,-0.001
613.50,-0.001
614.00,0.001
614.50,0.003
615.00,0.001
615.50,-0.000
616.00,-0.001
616.50,-0.005
617.00,-0.003
617.50,-0.002
618.00,-0.001
618.50,-0.001
619.00,0.001
619.50,-0.002
620.00,0.000
620.50,-0.003
621.00,0.002
621.50,-0.004
622.00,-0.002
622.50,0.000
623.00,0.003
623.50,0.003
624.00,-0.004
624.50,-0.001
625.00,0.001
625.50,-0.002
626.00,-0.003
626.50,0.000
627.00,-0.003
627.50,-0.000
628.00,0.004
628.50,-0.001
629.00,-0.004
629.50,0.001
630.00,-0.003
630.50,-0.003
631.00,0.001
631.50,0.004
632.00,0.002
632.50,-0.001
633.00,-0.002
633.50,0.004
634.00,0.001
634.50,0.002
635.00,0.000
635.50,-0.004
636.00,-0.002
636.50,0.003
637.00,0.000
637.50,-0.002
638.00,-0.002
638.50,-0.001
639.00,0.002
639.50,0.000
640.00,-0.005
640.50,-0.002
641.00,-0.001
641.50,0.009
642.00,-0.001
642.50,-0.002
643.00,-0.003
643.50,0.003
644.00,-0.002
644.50,-0.005
645.00,-0.002
645.50,-0.003
646.00,-0.007
646.50,-0.001
647.00,-0.000
647.50,0.006
648.00,-0.004
648.50,0.002
649.00,-0.001
649.50,-0.006
650.00,0.002
650.50,-0.000
651.00,0.001
651.50,-0.007
652.00,-0.002
652.50,-0.002
653.00,-0.004
653.50,-0.001
654.00,-0.010
654.50,0.004
655.00,0.007
655.50,-0.002
656.00,0.002
656.50,0.006
657.00,-0.002
657.50,0.005
658.00,0.002
658.50,-0.001
659.00,0.002
659.50,-0.001
660.00,-0.001
660.50,0.001
661.00,-0.002
661.50,-0.000
662.00,-0.004
662.50,-0.000
663.00,0.000
663.50,-0.002
664.00,0.000
664.50,0.003
665.00,-0.000
665.50,0.001
666.00,0.002
666.50,-0.004
667.00,-0.001
667.50,0.001
668.00,-0.001
668.50,0.002
669.00,0.001
669.50,-0.001
670.00,0.002
670.50,0.003
671.00,0.001
671.50,0.000
672.00,0.001
672.50,-0.003
673.00,-0.003
673.50,0.002
674.00,-0.003
674.50,0.002
675.00,-0.005
675.50,-0.001
676.00,-0.002
676.50,-0.000
677.00,-0.002
677.50,0.000
678.00,0.002
678.50,-0.000
679.00,-0.003
679.50,-0.001
680.00,0.003
680.50,-0.001
681.00,0.003
681.50,0.007
682.00,0.009
682.50,0.021
683.00,0.033
683.50,0.052
684.00,0.081
684.50,0.127
685.00,0.192
685.50,0.274
686.00,0.398
686.50,0.545
687.00,0.754
687.50,1.022
688.00,1.373
688.50,1.781
689.00,2.267
689.50,2.874
690.00,3.596
690.50,4.428
691.00,5.395
691.50,6.435
692.00,7.542
692.50,8.884
693.00,10.202
693.50,11.803
694.00,13.304
694.50,15.010
695.00,16.759
695.50,18.574
696.00,20.455
696.50,22.407
697.00,24.434
697.50,26.564
698.00,28.614
698.50,30.662
699.00,32.682
699.50,34.817
700.00,36.885
700.50,38.992
701.00,40.919
701.50,42.840
702.00,44.947
702.50,46.956
703.00,48.524
703.50,50.416
704.00,51.888
704.50,53.738
705.00,55.378
705.50,56.659
706.00,58.236
706.50,59.651
707.00,61.073
707.50,62.392
708.00,63.385
708.50,64.694
709.00,65.899
709.50,66.782
710.00,67.705
710.50,68.541
711.00,69.781
711.50,70.363
712.00,71.325
712.50,71.988
713.00,72.747
713.50,73.752
714.00,74.115
714.50,74.739
715.00,75.413
715.50,76.095
716.00,76.554
716.50,77.249
717.00,77.646
717.50,77.971
718.00,78.595
718.50,78.837
719.00,78.967
719.50,79.873
720.00,80.017
720.50,80.182
721.00,80.525
721.50,80.920
722.00,81.390
722.50,81.534
723.00,81.640
723.50,81.863
724.00,81.906
724.50,82.350
725.00,82.668
725.50,82.737
726.00,82.976
726.50,83.030
727.00,83.220
727.50,83.239
728.00,83.609
728.50,83.560
729.00,83.792
729.50,83.668
730.00,83.944
730.50,83.987
731.00,83.953
731.50,84.527
732.00,84.508
732.50,84.620
733.00,84.772
733.50,84.742
734.00,84.641
734.50,84.796
735.00,85.133
735.50,85.067
736.00,85.025
736.50,85.311
737.00,85.598
737.50,85.341
738.00,85.214
738.50,85.249
739.00,85.199
739.50,85.370
740.00,85.603
740.50,85.578
741.00,85.667
741.50,85.605
742.00,85.798
742.50,85.480
743.00,85.683
743.50,85.426
744.00,85.987
744.50,85.712
745.00,85.916
745.50,85.655
746.00,85.702
746.50,85.581
747.00,85.651
747.50,85.699
748.00,86.153
748.50,86.243
749.00,85.901
749.50,86.137
750.00,86.073
750.50,85.999
751.00,86.289
751.50,86.140
752.00,85.784
752.50,86.310
753.00,85.799
753.50,86.055
754.00,85.834
754.50,86.048
755.00,86.056
755.50,86.296
756.00,86.377
756.50,86.047
757.00,85.882
757.50,85.887
758.00,86.077
758.50,86.325
759.00,86.126
759.50,85.994
760.00,86.020
760.50,86.046
761.00,86.061
761.50,86.146
762.00,86.497
762.50,85.934
763.00,85.789
763.50,86.463
764.00,86.082
764.50,86.429
765.00,86.094
765.50,86.227
766.00,86.561
766.50,86.002
767.00,85.921
767.50,86.280
768.00,86.324
768.50,86.244
769.00,86.188
769.50,85.900
770.00,85.639
770.50,86.037
771.00,86.175
771.50,85.930
772.00,85.662
772.50,86.258
773.00,86.181
773.50,85.961
774.00,85.747
774.50,86.077
775.00,86.096
775.50,86.276
776.00,86.189
776.50,86.274
777.00,85.679
777.50,85.947
778.00,86.212
778.50,86.047
779.00,85.994
779.50,86.281
780.00,86.380
780.50,86.337
781.00,86.008
781.50,86.038
782.00,86.110
782.50,85.979
783.00,86.155
783.50,86.558
784.00,86.268
784.50,85.864
785.00,86.008
785.50,86.253
786.00,86.077
786.50,86.065
787.00,86.158
787.50,86.021
788.00,86.129
788.50,85.765
789.00,86.208
789.50,85.868
790.00,85.869
790.50,86.236
791.00,85.907
791.50,86.088
792.00,86.136
792.50,85.779
793.00,86.077
793.50,85.935
794.00,85.825
794.50,86.089
795.00,86.002
795.50,86.196
796.00,86.323
796.50,85.402
797.00,86.073
797.50,85.896
798.00,85.705
798.50,85.805
799.00,85.608
799.50,86.303
800.00,85.535
800.50,85.599
801.00,86.199
801.50,85.907
802.00,86.392
802.50,85.905
803.00,86.170
803.50,85.542
804.00,86.034
804.50,86.119
805.00,85.196
805.50,85.598
806.00,85.258
806.50,85.613
807.00,86.035
807.50,85.834
808.00,86.529
808.50,85.718
809.00,85.524
809.50,85.259
810.00,85.833
810.50,85.860
811.00,85.874
811.50,85.765
812.00,85.630
812.50,86.158
813.00,86.073
813.50,85.405
814.00,85.305
814.50,85.980
815.00,85.695
815.50,86.080
816.00,85.929
816.50,85.776
817.00,84.722
817.50,85.372
818.00,85.720
818.50,86.196
819.00,85.387
819.50,85.379
820.00,85.417
820.50,85.892
821.00,85.795
821.50,85.833
822.00,85.479
822.50,85.687
823.00,86.014
823.50,85.289
824.00,85.992
824.50,85.806
825.00,85.939
825.50,85.961
826.00,85.828
826.50,85.343
827.00,85.204
827.50,85.463
828.00,85.934
828.50,85.256
829.00,84.967
829.50,85.960
830.00,85.753
830.50,85.823
831.00,85.458
831.50,85.572
832.00,85.228
832.50,85.695
833.00,86.049
833.50,85.860
834.00,85.576
834.50,85.678
835.00,85.310
835.50,85.921
836.00,85.043
836.50,85.091
837.00,85.392
837.50,85.367
838.00,85.700
838.50,86.091
839.00,85.664
839.50,85.092
840.00,85.317
840.50,86.070
841.00,85.088
841.50,85.838
842.00,85.374
842.50,85.680
843.00,86.085
843.50,85.250
844.00,85.639
844.50,85.603
845.00,86.100
845.50,85.488
846.00,85.599
846.50,85.565
847.00,85.147
847.50,86.067
848.00,84.941
848.50,85.595
849.00,85.218
849.50,85.452
850.00,85.362
850.50,85.296
851.00,84.944
851.50,85.588
852.00,85.868
852.50,85.774
853.00,85.732
853.50,85.572
854.00,85.355
854.50,85.453
855.00,85.091
855.50,85.925
856.00,86.277
856.50,85.851
857.00,85.322
857.50,85.005
858.00,85.645
858.50,85.275
859.00,85.325
859.50,85.535
860.00,86.048
860.50,85.676
861.00,85.297
861.50,85.523
862.00,85.429
862.50,85.874
863.00,85.706
863.50,85.883
864.00,85.901
864.50,86.303
865.00,85.889
865.50,85.320
866.00,85.130
866.50,85.831
867.00,85.452
867.50,85.780
868.00,85.845
868.50,85.903
869.00,86.040
869.50,85.993
870.00,85.521
870.50,86.172
871.00,85.494
871.50,86.301
872.00,85.296
872.50,85.903
873.00,85.830
873.50,85.482
874.00,86.293
874.50,85.045
875.00,86.735
875.50,84.922
876.00,87.013
876.50,86.515
877.00,86.139
877.50,86.477
878.00,84.997
878.50,85.436
